# XDI/1.0 Demeter/0.9.26
# Demeter.output_filetype: multicolumn chi(k)
# Element.symbol: Ni
# Element.edge: K
# Column.1: k inverse Angstrom
# Column.2: energy eV
# Column.3: Ni_foil
#------------------------
#  k energy  Ni_foil
  0.0000000        8333.0000       0.65825147
  0.50000000E-01    8333.0095       0.67712106
  0.10000000        8333.0381       0.69599064
  0.15000000        8333.0857       0.71486023
  0.20000000        8333.1524       0.73372982
  0.25000000        8333.2381       0.73666833
  0.30000000        8333.3429       0.71739803
  0.35000000        8333.4667       0.69539464
  0.40000000        8333.6096       0.67062138
  0.45000000        8333.7715       0.64224042
  0.50000000        8333.9525       0.61115951
  0.55000000        8334.1525       0.57696192
  0.60000000        8334.3716       0.54032968
  0.65000000        8334.6097       0.50102600
  0.70000000        8334.8669       0.45356674
  0.75000000        8335.1431       0.41411666
  0.80000000        8335.4384       0.36649038
  0.85000000        8335.7527       0.32478864
  0.90000000        8336.0861       0.26223045
  0.95000000        8336.4385       0.20181121
  1.0000000        8336.8100       0.14434876
  1.0500000        8337.2005       0.90881666E-01
  1.1000000        8337.6101       0.42366765E-01
  1.1500000        8338.0387      -0.19743119E-03
  1.2000000        8338.4864      -0.36728422E-01
  1.2500000        8338.9531      -0.67890257E-01
  1.3000000        8339.4389      -0.10118398
  1.3500000        8339.9437      -0.13600680
  1.4000000        8340.4676      -0.16149757
  1.4500000        8341.0105      -0.18269659
  1.5000000        8341.5725      -0.20133652
  1.5500000        8342.1535      -0.21043906
  1.6000000        8342.7536      -0.20956164
  1.6500000        8343.3727      -0.19901806
  1.7000000        8344.0109      -0.17941231
  1.7500000        8344.6681      -0.14736706
  1.8000000        8345.3443      -0.10831339
  1.8500000        8346.0397      -0.71101015E-01
  1.9000000        8346.7540      -0.26128274E-01
  1.9500000        8347.4875       0.20280204E-01
  2.0000000        8348.2399       0.53278333E-01
  2.0500000        8349.0115       0.69843588E-01
  2.1000000        8349.8020       0.72853711E-01
  2.1500000        8350.6117       0.66556924E-01
  2.2000000        8351.4403       0.54500419E-01
  2.2500000        8352.2880       0.40302910E-01
  2.3000000        8353.1548       0.27735799E-01
  2.3500000        8354.0406       0.20746391E-01
  2.4000000        8354.9455       0.26271021E-01
  2.4500000        8355.8694       0.42425458E-01
  2.5000000        8356.8124       0.61499803E-01
  2.5500000        8357.7744       0.74376349E-01
  2.6000000        8358.7555       0.72246685E-01
  2.6500000        8359.7556       0.59105875E-01
  2.7000000        8360.7748       0.43227326E-01
  2.7500000        8361.8130       0.29742066E-01
  2.8000000        8362.8703       0.16237166E-01
  2.8500000        8363.9466      -0.65857482E-04
  2.9000000        8365.0420      -0.16333095E-01
  2.9500000        8366.1564      -0.29877606E-01
  3.0000000        8367.2899      -0.40730786E-01
  3.0500000        8368.4424      -0.46691995E-01
  3.1000000        8369.6139      -0.51266654E-01
  3.1500000        8370.8046      -0.51896467E-01
  3.2000000        8372.0142      -0.47773487E-01
  3.2500000        8373.2430      -0.37623822E-01
  3.3000000        8374.4907      -0.23034159E-01
  3.3500000        8375.7575      -0.58363477E-02
  3.4000000        8377.0434       0.14225344E-01
  3.4500000        8378.3483       0.35931363E-01
  3.5000000        8379.6723       0.57058179E-01
  3.5500000        8381.0153       0.74262261E-01
  3.6000000        8382.3774       0.82389433E-01
  3.6500000        8383.7585       0.80089291E-01
  3.7000000        8385.1587       0.67850603E-01
  3.7500000        8386.5779       0.49100462E-01
  3.8000000        8388.0162       0.25205195E-01
  3.8500000        8389.4735       0.18969920E-02
  3.9000000        8390.9499      -0.17989726E-01
  3.9500000        8392.4453      -0.34779261E-01
  4.0000000        8393.9597      -0.47029423E-01
  4.0500000        8395.4933      -0.53677485E-01
  4.1000000        8397.0458      -0.54636215E-01
  4.1500000        8398.6174      -0.53645598E-01
  4.2000000        8400.2081      -0.53872088E-01
  4.2500000        8401.8178      -0.56217114E-01
  4.3000000        8403.4466      -0.58199854E-01
  4.3500000        8405.0944      -0.57753844E-01
  4.4000000        8406.7613      -0.52998175E-01
  4.4500000        8408.4472      -0.45238551E-01
  4.5000000        8410.1522      -0.37889450E-01
  4.5500000        8411.8762      -0.31953910E-01
  4.6000000        8413.6193      -0.25265051E-01
  4.6500000        8415.3814      -0.15291905E-01
  4.7000000        8417.1625      -0.31875140E-02
  4.7500000        8418.9628       0.87113771E-02
  4.8000000        8420.7820       0.20101795E-01
  4.8500000        8422.6203       0.32075451E-01
  4.9000000        8424.4777       0.46554013E-01
  4.9500000        8426.3541       0.62601420E-01
  5.0000000        8428.2496       0.78524743E-01
  5.0500000        8430.1641       0.90715970E-01
  5.1000000        8432.0977       0.95405613E-01
  5.1500000        8434.0503       0.92845154E-01
  5.2000000        8436.0220       0.81628730E-01
  5.2500000        8438.0127       0.65418256E-01
  5.3000000        8440.0225       0.47185260E-01
  5.3500000        8442.0513       0.28293410E-01
  5.4000000        8444.0991       0.99843310E-02
  5.4500000        8446.1661      -0.40685616E-02
  5.5000000        8448.2520      -0.15107716E-01
  5.5500000        8450.3570      -0.27764811E-01
  5.6000000        8452.4811      -0.44901473E-01
  5.6500000        8454.6242      -0.63401305E-01
  5.7000000        8456.7864      -0.78134380E-01
  5.7500000        8458.9676      -0.86562432E-01
  5.8000000        8461.1679      -0.86329868E-01
  5.8500000        8463.3872      -0.79164372E-01
  5.9000000        8465.6255      -0.66353901E-01
  5.9500000        8467.8830      -0.51258367E-01
  6.0000000        8470.1594      -0.35371285E-01
  6.0500000        8472.4549      -0.22034720E-01
  6.1000000        8474.7695      -0.14826894E-01
  6.1500000        8477.1031      -0.13273368E-01
  6.2000000        8479.4558      -0.16471771E-01
  6.2500000        8481.8275      -0.18450732E-01
  6.3000000        8484.2183      -0.11496981E-01
  6.3500000        8486.6281       0.59206081E-02
  6.4000000        8489.0569       0.34177659E-01
  6.4500000        8491.5049       0.62955575E-01
  6.5000000        8493.9718       0.83426166E-01
  6.5500000        8496.4578       0.95693176E-01
  6.6000000        8498.9629       0.10066929
  6.6500000        8501.4870       0.10108942
  6.7000000        8504.0302       0.94586244E-01
  6.7500000        8506.5924       0.81322279E-01
  6.8000000        8509.1737       0.59509213E-01
  6.8500000        8511.7740       0.30999665E-01
  6.9000000        8514.3933      -0.28404684E-02
  6.9500000        8517.0318      -0.37766822E-01
  7.0000000        8519.6892      -0.69072170E-01
  7.0500000        8522.3657      -0.90945590E-01
  7.1000000        8525.0613      -0.97363450E-01
  7.1500000        8527.7759      -0.91499837E-01
  7.2000000        8530.5096      -0.73748640E-01
  7.2500000        8533.2623      -0.51305917E-01
  7.3000000        8536.0340      -0.30066944E-01
  7.3500000        8538.8249      -0.11973993E-01
  7.4000000        8541.6347       0.44142662E-03
  7.4500000        8544.4636       0.60973030E-02
  7.5000000        8547.3116       0.62489888E-02
  7.5500000        8550.1786       0.42373043E-02
  7.6000000        8553.0647       0.11439099E-02
  7.6500000        8555.9698      -0.29019791E-02
  7.7000000        8558.8940      -0.88984785E-02
  7.7500000        8561.8372      -0.14315620E-01
  7.8000000        8564.7994      -0.13870354E-01
  7.8500000        8567.7807      -0.34272491E-02
  7.9000000        8570.7811       0.14666735E-01
  7.9500000        8573.8005       0.32740241E-01
  8.0000000        8576.8390       0.46782654E-01
  8.0500000        8579.8965       0.56117215E-01
  8.1000000        8582.9731       0.60115855E-01
  8.1500000        8586.0687       0.59253718E-01
  8.2000000        8589.1833       0.51047208E-01
  8.2500000        8592.3170       0.36457786E-01
  8.3000000        8595.4698       0.17752013E-01
  8.3500000        8598.6416      -0.12101907E-02
  8.4000000        8601.8325      -0.17478829E-01
  8.4500000        8605.0424      -0.28708093E-01
  8.5000000        8608.2713      -0.33718198E-01
  8.5500000        8611.5194      -0.34345182E-01
  8.6000000        8614.7864      -0.31993440E-01
  8.6500000        8618.0725      -0.29878780E-01
  8.7000000        8621.3777      -0.28729952E-01
  8.7500000        8624.7019      -0.27685467E-01
  8.8000000        8628.0452      -0.26367753E-01
  8.8500000        8631.4075      -0.23722892E-01
  8.9000000        8634.7888      -0.19002704E-01
  8.9500000        8638.1892      -0.13040735E-01
  9.0000000        8641.6087      -0.67523888E-02
  9.0500000        8645.0472      -0.13444311E-02
  9.1000000        8648.5048       0.28112630E-02
  9.1500000        8651.9814       0.62842520E-02
  9.2000000        8655.4770       0.98149841E-02
  9.2500000        8658.9918       0.13815764E-01
  9.3000000        8662.5255       0.18747899E-01
  9.3500000        8666.0783       0.24147787E-01
  9.4000000        8669.6502       0.28269109E-01
  9.4500000        8673.2411       0.28692950E-01
  9.5000000        8676.8511       0.25150920E-01
  9.5500000        8680.4801       0.19454557E-01
  9.6000000        8684.1281       0.11926504E-01
  9.6500000        8687.7952       0.42274656E-02
  9.7000000        8691.4814      -0.10386909E-02
  9.7500000        8695.1866      -0.32932280E-02
  9.8000000        8698.9109      -0.22861666E-02
  9.8500000        8702.6542      -0.71747966E-03
  9.9000000        8706.4165      -0.16910630E-02
  9.9500000        8710.1979      -0.56815899E-02
  10.000000        8713.9984      -0.12149168E-01
  10.050000        8717.8179      -0.17025422E-01
  10.100000        8721.6565      -0.17657054E-01
  10.150000        8725.5141      -0.16639633E-01
  10.200000        8729.3907      -0.15525443E-01
  10.250000        8733.2864      -0.14033609E-01
  10.300000        8737.2012      -0.11816058E-01
  10.350000        8741.1350      -0.92148351E-02
  10.400000        8745.0879      -0.61681830E-02
  10.450000        8749.0598      -0.31040015E-02
  10.500000        8753.0507      -0.58120747E-05
  10.550000        8757.0607       0.30273060E-02
  10.600000        8761.0898       0.57690291E-02
  10.650000        8765.1379       0.83606605E-02
  10.700000        8769.2051       0.10782083E-01
  10.750000        8773.2913       0.12865399E-01
  10.800000        8777.3965       0.13849491E-01
  10.850000        8781.5208       0.13403548E-01
  10.900000        8785.6642       0.11101155E-01
  10.950000        8789.8266       0.75346228E-02
  11.000000        8794.0081       0.33272630E-02
  11.050000        8798.2086       0.13804311E-03
  11.100000        8802.4281      -0.12784144E-02
  11.150000        8806.6667      -0.14261593E-02
  11.200000        8810.9244      -0.62722956E-03
  11.250000        8815.2011       0.37074798E-03
  11.300000        8819.4969       0.69524228E-03
  11.350000        8823.8117       0.25790221E-03
  11.400000        8828.1455      -0.14526368E-02
  11.450000        8832.4984      -0.37685692E-02
  11.500000        8836.8704      -0.54817336E-02
  11.550000        8841.2614      -0.62894719E-02
  11.600000        8845.6715      -0.67984680E-02
  11.650000        8850.1006      -0.75263375E-02
  11.700000        8854.5487      -0.79117732E-02
  11.750000        8859.0159      -0.77978952E-02
  11.800000        8863.5022      -0.69710148E-02
  11.850000        8868.0075      -0.53363462E-02
  11.900000        8872.5318      -0.31005823E-02
  11.950000        8877.0752      -0.66566724E-03
  12.000000        8881.6377       0.20874840E-02
  12.050000        8886.2192       0.51684260E-02
  12.100000        8890.8198       0.77856056E-02
  12.150000        8895.4394       0.95995205E-02
  12.200000        8900.0780       0.97949609E-02
  12.250000        8904.7357       0.82650799E-02
  12.300000        8909.4125       0.56111076E-02
  12.350000        8914.1083       0.29674611E-02
  12.400000        8918.8231       0.10666173E-02
  12.450000        8923.5570       0.11955662E-04
  12.500000        8928.3100      -0.59053677E-03
  12.550000        8933.0820      -0.96338773E-03
  12.600000        8937.8731      -0.98104046E-03
  12.650000        8942.6832      -0.85817116E-03
  12.700000        8947.5123      -0.87051316E-03
  12.750000        8952.3605      -0.10895580E-02
  12.800000        8957.2278      -0.13317410E-02
  12.850000        8962.1141      -0.16301239E-02
  12.900000        8967.0194      -0.21942533E-02
  12.950000        8971.9438      -0.28687482E-02
  13.000000        8976.8873      -0.32159874E-02
  13.050000        8981.8498      -0.33533605E-02
  13.100000        8986.8314      -0.31729272E-02
  13.150000        8991.8320      -0.26732212E-02
  13.200000        8996.8516      -0.20730368E-02
  13.250000        9001.8903      -0.14968993E-02
  13.300000        9006.9481      -0.77399254E-03
  13.350000        9012.0249       0.12149489E-03
  13.400000        9017.1207       0.11481773E-02
  13.450000        9022.2356       0.19441659E-02
  13.500000        9027.3696       0.23433563E-02
  13.550000        9032.5226       0.25533175E-02
  13.600000        9037.6946       0.25093660E-02
  13.650000        9042.8857       0.24171106E-02
  13.700000        9048.0959       0.21649246E-02
  13.750000        9053.3251       0.17352741E-02
  13.800000        9058.5734       0.12060657E-02
  13.850000        9063.8407       0.73682987E-03
  13.900000        9069.1270       0.48235768E-03
  13.950000        9074.4324       0.34013757E-03
  14.000000        9079.7569       0.74379147E-04
  14.050000        9085.1004      -0.23322269E-03
  14.100000        9090.4629      -0.47767981E-03
  14.150000        9095.8445      -0.58486381E-03
  14.200000        9101.2452      -0.75014838E-03
  14.250000        9106.6649      -0.98234884E-03
  14.300000        9112.1036      -0.12213526E-02
  14.350000        9117.5614      -0.14581535E-02
  14.400000        9123.0383      -0.16778197E-02
  14.450000        9128.5342      -0.17453953E-02
  14.500000        9134.0491      -0.16007314E-02
  14.550000        9139.5831      -0.12564160E-02
  14.600000        9145.1362      -0.74285502E-03
  14.650000        9150.7083      -0.19927758E-03
  14.700000        9156.2994       0.30312345E-03
  14.750000        9161.9097       0.71342249E-03
  14.800000        9167.5389       0.98030840E-03
  14.850000        9173.1872       0.97672885E-03
  14.900000        9178.8546       0.87915284E-03
  14.950000        9184.5410       0.84487101E-03
  15.000000        9190.2464       0.87501548E-03
  15.050000        9195.9709       0.10075334E-02
  15.100000        9201.7145       0.11363260E-02
  15.150000        9207.4771       0.12207973E-02
  15.200000        9213.2587       0.11114881E-02
  15.250000        9219.0594       0.85384934E-03
  15.300000        9224.8792       0.52477857E-03
  15.350000        9230.7180       0.20310598E-03
  15.400000        9236.5758      -0.94381292E-04
  15.450000        9242.4527      -0.34683638E-03
  15.500000        9248.3487      -0.54094793E-03
  15.550000        9254.2637      -0.74837541E-03
  15.600000        9260.1977      -0.92917708E-03
  15.650000        9266.1508      -0.11297333E-02
  15.700000        9272.1230      -0.12824760E-02
  15.750000        9278.1142      -0.13927384E-02
  15.800000        9284.1244      -0.15172652E-02
  15.850000        9290.1537      -0.16218605E-02
